# NIC1 TRANSMISSION PROFILE FOR f140w
# BASED ON nic1_f140w_003.tab FROM ftp://ftp.stsci.edu/cdbs/cdbs2/comp/nicmos
0.873000   0.000106125
0.873500   4.40352e-06
0.874000   6.42914e-06
0.874500   4.35068e-05
0.875000   0.00125765
0.875500   0.000415604
0.876000   0.000410056
0.876500   0.000289311
0.877000   0.00000
0.877500   0.00000
0.878000   0.00000
0.878500   0.000331497
0.879000   1.39151e-05
0.879500   0.00000
0.880000   0.00000
0.880500   0.00000
0.881000   0.000688711
0.881500   0.00000
0.882000   0.00000
0.882500   0.000599936
0.883000   6.42033e-05
0.883500   0.00000
0.884000   0.000338543
0.884500   0.00000
0.885000   0.000581529
0.885500   0.000295564
0.886000   0.000138006
0.886500   0.000153419
0.887000   0.000420801
0.887500   0.00000
0.888000   0.00000
0.888500   0.000693643
0.889000   0.00000
0.889500   0.000228895
0.890000   3.52282e-07
0.890500   0.00000
0.891000   0.000571313
0.891500   8.21697e-05
0.892000   0.00000
0.892500   0.00000
0.893000   0.00000
0.893500   0.000461577
0.894000   0.000209343
0.894500   0.00000
0.895000   0.000576509
0.895500   0.000570873
0.896000   0.00000
0.896500   0.00000
0.897000   0.00000
0.897500   0.000492754
0.898000   0.00000
0.898500   0.000206261
0.899000   0.000156149
0.899500   0.00000
0.900000   0.00000
0.900500   0.000152362
0.901000   5.38110e-05
0.901500   0.00000
0.902000   0.00000
0.902500   3.21457e-05
0.903000   6.32346e-05
0.903500   0.00000
0.904000   0.00000
0.904500   0.000210841
0.905000   0.00000
0.905500   0.000169448
0.906000   1.40913e-06
0.906500   0.00000
0.907000   2.90632e-05
0.907500   0.00000
0.908000   0.00000
0.908500   0.000244219
0.909000   0.000219295
0.909500   0.000131401
0.910000   0.00000
0.910500   0.000182570
0.911000   0.000131753
0.911500   0.00000
0.912000   0.000307014
0.912500   0.00000
0.913000   0.00000
0.913500   0.000177286
0.914000   0.00000
0.914500   0.000368311
0.915000   0.000194371
0.915500   0.000192962
0.916000   0.00000
0.916500   0.000118807
0.917000   0.000117838
0.917500   0.00000
0.918000   0.000572986
0.918500   4.59728e-05
0.919000   0.000138094
0.919500   0.000159408
0.920000   0.000133515
0.920500   0.000394291
0.921000   0.000499359
0.921500   9.10648e-05
0.922000   0.000362498
0.922500   0.000254171
0.923000   0.000653483
0.923500   0.000378174
0.924000   7.92634e-07
0.924500   0.000367342
0.925000   0.000504908
0.925500   0.00000
0.926000   0.000304812
0.926500   0.000374387
0.927000   7.93515e-05
0.927500   0.000471617
0.928000   0.000563739
0.928500   3.93675e-05
0.929000   0.000208463
0.929500   0.000467830
0.930000   0.000260336
0.930500   0.000461137
0.931000   0.000293715
0.931500   0.000418070
0.932000   0.000577126
0.932500   0.000286845
0.933000   0.000596413
0.933500   0.000786469
0.934000   0.000684043
0.934500   0.000279007
0.935000   0.000381609
0.935500   0.000396141
0.936000   0.000609359
0.936500   0.000543659
0.937000   0.000574219
0.937500   0.00100532
0.938000   0.000317494
0.938500   0.000414107
0.939000   0.000996693
0.939500   0.00105869
0.940000   0.00101616
0.940500   0.00102673
0.941000   0.00116869
0.941500   0.00111233
0.942000   0.00123457
0.942500   0.00162287
0.943000   0.00151974
0.943500   0.00155929
0.944000   0.00196961
0.944500   0.00167915
0.945000   0.00179153
0.945500   0.00188506
0.946000   0.00211387
0.946500   0.00204086
0.947000   0.00216327
0.947500   0.00260900
0.948000   0.00216970
0.948500   0.00243286
0.949000   0.00260574
0.949500   0.00280927
0.950000   0.00267822
0.950500   0.00304592
0.951000   0.00316657
0.951500   0.00332070
0.952000   0.00330960
0.952500   0.00360860
0.953000   0.00375427
0.953500   0.00377479
0.954000   0.00407837
0.954500   0.00408022
0.955000   0.00404067
0.955500   0.00448323
0.956000   0.00441726
0.956500   0.00486730
0.957000   0.00500997
0.957500   0.00541528
0.958000   0.00539669
0.958500   0.00574431
0.959000   0.00597840
0.959500   0.00608223
0.960000   0.00632205
0.960500   0.00675403
0.961000   0.00665566
0.961500   0.00723534
0.962000   0.00745992
0.962500   0.00747542
0.963000   0.00816290
0.963500   0.00842535
0.964000   0.00894003
0.964500   0.00947198
0.965000   0.00952235
0.965500   0.0100955
0.966000   0.0108150
0.966500   0.0113158
0.967000   0.0118242
0.967500   0.0119489
0.968000   0.0131666
0.968500   0.0135158
0.969000   0.0144082
0.969500   0.0150190
0.970000   0.0160904
0.970500   0.0168335
0.971000   0.0178678
0.971500   0.0188438
0.972000   0.0198328
0.972500   0.0208222
0.973000   0.0220468
0.973500   0.0233616
0.974000   0.0248152
0.974500   0.0261718
0.975000   0.0279706
0.975500   0.0291906
0.976000   0.0309826
0.976500   0.0329543
0.977000   0.0350814
0.977500   0.0373719
0.978000   0.0395844
0.978500   0.0420779
0.979000   0.0445562
0.979500   0.0474620
0.980000   0.0506586
0.980500   0.0542339
0.981000   0.0574807
0.981500   0.0609753
0.982000   0.0652599
0.982500   0.0693178
0.983000   0.0738582
0.983500   0.0789212
0.984000   0.0840669
0.984500   0.0897210
0.985000   0.0952289
0.985500   0.101465
0.986000   0.108260
0.986500   0.115642
0.987000   0.123461
0.987500   0.131231
0.988000   0.139694
0.988500   0.148260
0.989000   0.157973
0.989500   0.168511
0.990000   0.179045
0.990500   0.190014
0.991000   0.201664
0.991500   0.213582
0.992000   0.226101
0.992500   0.239621
0.993000   0.254230
0.993500   0.268327
0.994000   0.282918
0.994500   0.297961
0.995000   0.313705
0.995500   0.329793
0.996000   0.346501
0.996500   0.363740
0.997000   0.380412
0.997500   0.396973
0.998000   0.414769
0.998500   0.432237
0.999000   0.450753
0.999500   0.468549
1.00000   0.486049
1.00050   0.502759
1.00100   0.520246
1.00150   0.537415
1.00200   0.554399
1.00250   0.571466
1.00300   0.587400
1.00350   0.602406
1.00400   0.617249
1.00450   0.631452
1.00500   0.645140
1.00550   0.658394
1.00600   0.671314
1.00650   0.682319
1.00700   0.692920
1.00750   0.702642
1.00800   0.712032
1.00850   0.720699
1.00900   0.728476
1.00950   0.734985
1.01000   0.740683
1.01050   0.745708
1.01100   0.750103
1.01150   0.753785
1.01200   0.756755
1.01250   0.759273
1.01300   0.760688
1.01350   0.761812
1.01400   0.761881
1.01450   0.761977
1.01500   0.761423
1.01550   0.760403
1.01600   0.758921
1.01650   0.756883
1.01700   0.754970
1.01750   0.752730
1.01800   0.750096
1.01850   0.747171
1.01900   0.743980
1.01950   0.741079
1.02000   0.737964
1.02050   0.734742
1.02100   0.731451
1.02150   0.728175
1.02200   0.725007
1.02250   0.721811
1.02300   0.718725
1.02350   0.715675
1.02400   0.712844
1.02450   0.709913
1.02500   0.707206
1.02550   0.704767
1.02600   0.702571
1.02650   0.700344
1.02700   0.698307
1.02750   0.696495
1.02800   0.694877
1.02850   0.693463
1.02900   0.692248
1.02950   0.691186
1.03000   0.690339
1.03050   0.689887
1.03100   0.689321
1.03150   0.688966
1.03200   0.688657
1.03250   0.689107
1.03300   0.689227
1.03350   0.689754
1.03400   0.690360
1.03450   0.691088
1.03500   0.692214
1.03550   0.693229
1.03600   0.694388
1.03650   0.695913
1.03700   0.697235
1.03750   0.699169
1.03800   0.700888
1.03850   0.702726
1.03900   0.704500
1.03950   0.706618
1.04000   0.708429
1.04050   0.710631
1.04100   0.712955
1.04150   0.715122
1.04200   0.717534
1.04250   0.719613
1.04300   0.722069
1.04350   0.724477
1.04400   0.726876
1.04450   0.729212
1.04500   0.731330
1.04550   0.733465
1.04600   0.735797
1.04650   0.737895
1.04700   0.740298
1.04750   0.742125
1.04800   0.744111
1.04850   0.745840
1.04900   0.747730
1.04950   0.749436
1.05000   0.751360
1.05050   0.752697
1.05100   0.754339
1.05150   0.755567
1.05200   0.756796
1.05250   0.758031
1.05300   0.759161
1.05350   0.760244
1.05400   0.760939
1.05450   0.761713
1.05500   0.762563
1.05550   0.763046
1.05600   0.763676
1.05650   0.764211
1.05700   0.764411
1.05750   0.764866
1.05800   0.765242
1.05850   0.765296
1.05900   0.765384
1.05950   0.765497
1.06000   0.765627
1.06050   0.765748
1.06100   0.765562
1.06150   0.765628
1.06200   0.765478
1.06250   0.765407
1.06300   0.765097
1.06350   0.765105
1.06400   0.764953
1.06450   0.764733
1.06500   0.764833
1.06550   0.764613
1.06600   0.764351
1.06650   0.764463
1.06700   0.764371
1.06750   0.764339
1.06800   0.764354
1.06850   0.764403
1.06900   0.764389
1.06950   0.764290
1.07000   0.764583
1.07050   0.765121
1.07100   0.764917
1.07150   0.765010
1.07200   0.765545
1.07250   0.765719
1.07300   0.766312
1.07350   0.766629
1.07400   0.767127
1.07450   0.767513
1.07500   0.768187
1.07550   0.768717
1.07600   0.769108
1.07650   0.769652
1.07700   0.770488
1.07750   0.771122
1.07800   0.771987
1.07850   0.772728
1.07900   0.773447
1.07950   0.774254
1.08000   0.775042
1.08050   0.776089
1.08100   0.776929
1.08150   0.777984
1.08200   0.778878
1.08250   0.779632
1.08300   0.780731
1.08350   0.781619
1.08400   0.782736
1.08450   0.783691
1.08500   0.784556
1.08550   0.785182
1.08600   0.786488
1.08650   0.786976
1.08700   0.788016
1.08750   0.788958
1.08800   0.789986
1.08850   0.790796
1.08900   0.791672
1.08950   0.792589
1.09000   0.793498
1.09050   0.794296
1.09100   0.795093
1.09150   0.795887
1.09200   0.796534
1.09250   0.797353
1.09300   0.798210
1.09350   0.798987
1.09400   0.799714
1.09450   0.800427
1.09500   0.801027
1.09550   0.801712
1.09600   0.802348
1.09650   0.802859
1.09700   0.803425
1.09750   0.804182
1.09800   0.804532
1.09850   0.805145
1.09900   0.805511
1.09950   0.806086
1.10000   0.806452
1.10050   0.806828
1.10100   0.807168
1.10150   0.807782
1.10200   0.807885
1.10250   0.808215
1.10300   0.808896
1.10350   0.809112
1.10400   0.809266
1.10450   0.809856
1.10500   0.810071
1.10550   0.810284
1.10600   0.810725
1.10650   0.811037
1.10700   0.811241
1.10750   0.811529
1.10800   0.811837
1.10850   0.811954
1.10900   0.812215
1.10950   0.812313
1.11000   0.812667
1.11050   0.812788
1.11100   0.812931
1.11150   0.813409
1.11200   0.813532
1.11250   0.813694
1.11300   0.814081
1.11350   0.814345
1.11400   0.814201
1.11450   0.814566
1.11500   0.814847
1.11550   0.815060
1.11600   0.815031
1.11650   0.815447
1.11700   0.815826
1.11750   0.815584
1.11800   0.815805
1.11850   0.816148
1.11900   0.816443
1.11950   0.816156
1.12000   0.816630
1.12050   0.816723
1.12100   0.816691
1.12150   0.816997
1.12200   0.816835
1.12250   0.817141
1.12300   0.817231
1.12350   0.817376
1.12400   0.817410
1.12450   0.817331
1.12500   0.817712
1.12550   0.817694
1.12600   0.817776
1.12650   0.817771
1.12700   0.817946
1.12750   0.817970
1.12800   0.817864
1.12850   0.818043
1.12900   0.818035
1.12950   0.818091
1.13000   0.817875
1.13050   0.818034
1.13100   0.817899
1.13150   0.817797
1.13200   0.817911
1.13250   0.817883
1.13300   0.817916
1.13350   0.817682
1.13400   0.817953
1.13450   0.817665
1.13500   0.817506
1.13550   0.817178
1.13600   0.817407
1.13650   0.817301
1.13700   0.817543
1.13750   0.817233
1.13800   0.817337
1.13850   0.816860
1.13900   0.817077
1.13950   0.816887
1.14000   0.816679
1.14050   0.816531
1.14100   0.816472
1.14150   0.816398
1.14200   0.816264
1.14250   0.816167
1.14300   0.816086
1.14350   0.815976
1.14400   0.815933
1.14450   0.815695
1.14500   0.815605
1.14550   0.815609
1.14600   0.815418
1.14650   0.815229
1.14700   0.815075
1.14750   0.815137
1.14800   0.815022
1.14850   0.815028
1.14900   0.814635
1.14950   0.814891
1.15000   0.814571
1.15050   0.814552
1.15100   0.814737
1.15150   0.814493
1.15200   0.814322
1.15250   0.814269
1.15300   0.814205
1.15350   0.813974
1.15400   0.814165
1.15450   0.813930
1.15500   0.813785
1.15550   0.813825
1.15600   0.814002
1.15650   0.813863
1.15700   0.813887
1.15750   0.813577
1.15800   0.813958
1.15850   0.813721
1.15900   0.813830
1.15950   0.813792
1.16000   0.813747
1.16050   0.813429
1.16100   0.813515
1.16150   0.813279
1.16200   0.813471
1.16250   0.813472
1.16300   0.813302
1.16350   0.813337
1.16400   0.813255
1.16450   0.812979
1.16500   0.813229
1.16550   0.813132
1.16600   0.813001
1.16650   0.813057
1.16700   0.812837
1.16750   0.812648
1.16800   0.812764
1.16850   0.812630
1.16900   0.812617
1.16950   0.812552
1.17000   0.812434
1.17050   0.812131
1.17100   0.812275
1.17150   0.812285
1.17200   0.812091
1.17250   0.811926
1.17300   0.811596
1.17350   0.811661
1.17400   0.811419
1.17450   0.811167
1.17500   0.811470
1.17550   0.811164
1.17600   0.811169
1.17650   0.811073
1.17700   0.810812
1.17750   0.810462
1.17800   0.810678
1.17850   0.810371
1.17900   0.810407
1.17950   0.810381
1.18000   0.810160
1.18050   0.810541
1.18100   0.809853
1.18150   0.810059
1.18200   0.809931
1.18250   0.809900
1.18300   0.809805
1.18350   0.809692
1.18400   0.809443
1.18450   0.809554
1.18500   0.809668
1.18550   0.809462
1.18600   0.809433
1.18650   0.809408
1.18700   0.809612
1.18750   0.809604
1.18800   0.809561
1.18850   0.809752
1.18900   0.810045
1.18950   0.809909
1.19000   0.810102
1.19050   0.810238
1.19100   0.810445
1.19150   0.810400
1.19200   0.810721
1.19250   0.810947
1.19300   0.811137
1.19350   0.811416
1.19400   0.812103
1.19450   0.811955
1.19500   0.812248
1.19550   0.812504
1.19600   0.813095
1.19650   0.813396
1.19700   0.813536
1.19750   0.814183
1.19800   0.814201
1.19850   0.814785
1.19900   0.815400
1.19950   0.815905
1.20000   0.816488
1.20050   0.816791
1.20100   0.817567
1.20150   0.818075
1.20200   0.818570
1.20250   0.819261
1.20300   0.819865
1.20350   0.820380
1.20400   0.821175
1.20450   0.821670
1.20500   0.822407
1.20550   0.823213
1.20600   0.823366
1.20650   0.824247
1.20700   0.825016
1.20750   0.825832
1.20800   0.826241
1.20850   0.826929
1.20900   0.827844
1.20950   0.828544
1.21000   0.828961
1.21050   0.829922
1.21100   0.830525
1.21150   0.831165
1.21200   0.831765
1.21250   0.832418
1.21300   0.833070
1.21350   0.833514
1.21400   0.834445
1.21450   0.834874
1.21500   0.835608
1.21550   0.836158
1.21600   0.836635
1.21650   0.837228
1.21700   0.837572
1.21750   0.838226
1.21800   0.838581
1.21850   0.838701
1.21900   0.839154
1.21950   0.839503
1.22000   0.839694
1.22050   0.839931
1.22100   0.840379
1.22150   0.840522
1.22200   0.840648
1.22250   0.840828
1.22300   0.840610
1.22350   0.840859
1.22400   0.841033
1.22450   0.840853
1.22500   0.840981
1.22550   0.840602
1.22600   0.840721
1.22650   0.840632
1.22700   0.839908
1.22750   0.839845
1.22800   0.839351
1.22850   0.838908
1.22900   0.838412
1.22950   0.837785
1.23000   0.837085
1.23050   0.836708
1.23100   0.836156
1.23150   0.835465
1.23300   0.833016
1.23350   0.832125
1.23400   0.831108
1.23450   0.830253
1.23500   0.829296
1.23550   0.828061
1.23600   0.827168
1.23650   0.825951
1.23700   0.824644
1.23750   0.823525
1.23800   0.822338
1.23850   0.821109
1.23900   0.819543
1.23950   0.818414
1.24000   0.817108
1.24050   0.815712
1.24100   0.814345
1.24150   0.813033
1.24200   0.811473
1.24250   0.809972
1.24300   0.808561
1.24350   0.807170
1.24400   0.805651
1.24450   0.804268
1.24500   0.802797
1.24550   0.801293
1.24600   0.799557
1.24650   0.798273
1.24700   0.796700
1.24750   0.795362
1.24800   0.794103
1.24850   0.792474
1.24900   0.790883
1.24950   0.789663
1.25000   0.788171
1.25050   0.786611
1.25100   0.785276
1.25150   0.783699
1.25200   0.782329
1.25250   0.781113
1.25300   0.779635
1.25350   0.778517
1.25400   0.777219
1.25450   0.775891
1.25500   0.774676
1.25550   0.773592
1.25600   0.772348
1.25650   0.771122
1.25700   0.770175
1.25750   0.769072
1.25800   0.767896
1.25850   0.766841
1.25900   0.765824
1.25950   0.764889
1.26000   0.763980
1.26050   0.763228
1.26100   0.762256
1.26150   0.761439
1.26200   0.760590
1.26250   0.759994
1.26300   0.759256
1.26350   0.758712
1.26400   0.758118
1.26450   0.757435
1.26500   0.756672
1.26550   0.756514
1.26600   0.755894
1.26650   0.755491
1.26700   0.755357
1.26750   0.754828
1.26800   0.754604
1.26850   0.754413
1.26900   0.754262
1.26950   0.754081
1.27000   0.754125
1.27050   0.753854
1.27100   0.753908
1.27150   0.753819
1.27200   0.754011
1.27250   0.754029
1.27300   0.754133
1.27350   0.754418
1.27400   0.754353
1.27450   0.754857
1.27500   0.754848
1.27550   0.755267
1.27600   0.755569
1.27650   0.756049
1.27700   0.756434
1.27750   0.757244
1.27800   0.757567
1.27850   0.758284
1.27900   0.758717
1.27950   0.759376
1.28000   0.760353
1.28050   0.760768
1.28100   0.761512
1.28150   0.762252
1.28200   0.762887
1.28250   0.763743
1.28300   0.764734
1.28350   0.765552
1.28400   0.766183
1.28450   0.767149
1.28500   0.768196
1.28550   0.769243
1.28600   0.770176
1.28650   0.771171
1.28700   0.772209
1.28750   0.772912
1.28800   0.774318
1.28850   0.775279
1.28900   0.776195
1.28950   0.777374
1.29000   0.778543
1.29050   0.779393
1.29100   0.780444
1.29150   0.781810
1.29200   0.782700
1.29250   0.783607
1.29300   0.785160
1.29350   0.786346
1.29400   0.787410
1.29450   0.788672
1.29500   0.789539
1.29550   0.790717
1.29600   0.791694
1.29650   0.792805
1.29700   0.793911
1.29750   0.795100
1.29800   0.796011
1.29850   0.797173
1.29900   0.798194
1.29950   0.799441
1.30000   0.800551
1.30050   0.801497
1.30100   0.802559
1.30150   0.803394
1.30200   0.804409
1.30250   0.805426
1.30300   0.806582
1.30350   0.807332
1.30400   0.808155
1.30450   0.809141
1.30500   0.809862
1.30550   0.810735
1.30600   0.811199
1.30650   0.812357
1.30700   0.813130
1.30750   0.813943
1.30800   0.814713
1.30850   0.815435
1.30900   0.815933
1.30950   0.816545
1.31000   0.817143
1.31050   0.817728
1.31100   0.818134
1.31150   0.818648
1.31200   0.819376
1.31250   0.819896
1.31300   0.820200
1.31350   0.820642
1.31400   0.821113
1.31450   0.821395
1.31500   0.821671
1.31550   0.822027
1.31600   0.822302
1.31650   0.822621
1.31700   0.822639
1.31750   0.823065
1.31800   0.823268
1.31850   0.823317
1.31900   0.823577
1.31950   0.823556
1.32000   0.823807
1.32050   0.823551
1.32100   0.823828
1.32150   0.823633
1.32200   0.823982
1.32250   0.823905
1.32300   0.823685
1.32350   0.823627
1.32400   0.823726
1.32450   0.823594
1.32500   0.823475
1.32550   0.823301
1.32600   0.823026
1.32650   0.822930
1.32700   0.822603
1.32750   0.822653
1.32800   0.822445
1.32850   0.821996
1.32900   0.821935
1.32950   0.821774
1.33000   0.821354
1.33050   0.821407
1.33100   0.820845
1.33150   0.820819
1.33200   0.820410
1.33250   0.820226
1.33300   0.820001
1.33350   0.819567
1.33400   0.819184
1.33450   0.818993
1.33500   0.818676
1.33550   0.818318
1.33600   0.818294
1.33650   0.817908
1.33700   0.817745
1.33750   0.817290
1.33800   0.816777
1.33850   0.816466
1.33900   0.816242
1.33950   0.816051
1.34000   0.815594
1.34050   0.815253
1.34100   0.814818
1.34150   0.814612
1.34200   0.814312
1.34250   0.813790
1.34300   0.813713
1.34350   0.813425
1.34400   0.813094
1.34450   0.812959
1.34500   0.812571
1.34550   0.812348
1.34600   0.812193
1.34650   0.811971
1.34700   0.811739
1.34750   0.811383
1.34800   0.811160
1.34850   0.810843
1.34900   0.810648
1.34950   0.810563
1.35000   0.810171
1.35050   0.809989
1.35100   0.809889
1.35150   0.809699
1.35200   0.809763
1.35250   0.809361
1.35300   0.809366
1.35350   0.809084
1.35400   0.809104
1.35450   0.808790
1.35500   0.808536
1.35550   0.808382
1.35600   0.808317
1.35650   0.808089
1.35700   0.807995
1.35750   0.807653
1.35800   0.807715
1.35850   0.807644
1.35900   0.807637
1.35950   0.807504
1.36000   0.807492
1.36050   0.807144
1.36100   0.806942
1.36150   0.806843
1.36200   0.806165
1.36250   0.806375
1.36300   0.806372
1.36350   0.806291
1.36400   0.805877
1.36450   0.805634
1.36500   0.805481
1.36550   0.805287
1.36600   0.805079
1.36650   0.804810
1.36700   0.804902
1.36750   0.804401
1.36800   0.804211
1.36850   0.803708
1.36900   0.803194
1.36950   0.802969
1.37000   0.802522
1.37050   0.801688
1.37100   0.801025
1.37150   0.800314
1.37200   0.799599
1.37250   0.798468
1.37300   0.797406
1.37350   0.796728
1.37400   0.795982
1.37450   0.794859
1.37500   0.793860
1.37550   0.792614
1.37600   0.791897
1.37650   0.790856
1.37700   0.789749
1.37750   0.789052
1.37800   0.788389
1.37850   0.787375
1.37900   0.786662
1.37950   0.786327
1.38000   0.785666
